# Analysis Created by 'NetAna'.
# AC Node Analysis of file: /home/jim/netana3.0/netana/examples/Active5PButterworthFilter.txt
# Report file created: /home/jim/netana3.0/netana/examples/Active5PButterworthFilter.report 
# Date Created: Wed Jul  2 15:07:04 2014
#


##### Units = Volts ####

# FrequencyHZ       Magnitude(db)    Phase Angle(deg)
     10.00             +9.8249            -23.0769
     20.00             +9.5080            -45.8390
     30.00             +9.0176            -68.0080
     40.00             +8.4143            -89.4506
     50.00             +7.7726            +69.6769
     60.00             +7.1515            +48.8329
     70.00             +6.5494            +27.0912
     80.00             +5.8382             +3.3772
     90.00             +4.7144            -22.6605
    100.00             +2.8465            -49.3042
    110.00             +0.2380            -73.3744
    120.00             -2.7657            +86.9355
    130.00             -5.8339            +71.3923
    140.00             -8.7978            +59.0267
    150.00            -11.5995            +48.9536
    160.00            -14.2311            +40.5377
    170.00            -16.7027            +33.3479
    180.00            -19.0297            +27.0918
    190.00            -21.2274            +21.5669
    200.00            -23.3099            +16.6288
    210.00            -25.2894            +12.1720
    220.00            -27.1764             +8.1172
    230.00            -28.9799             +4.4036
    240.00            -30.7078             +0.9832
    250.00            -32.3666             -2.1821
    260.00            -33.9621             -5.1234
    270.00            -35.4995             -7.8664
    280.00            -36.9831            -10.4324
    290.00            -38.4168            -12.8395
    300.00            -39.8042            -15.1031
    310.00            -41.1482            -17.2367
    320.00            -42.4518            -19.2516
    330.00            -43.7173            -21.1581
    340.00            -44.9470            -22.9650
    350.00            -46.1430            -24.6802
    360.00            -47.3072            -26.3107
    370.00            -48.4413            -27.8628
    380.00            -49.5467            -29.3421
    390.00            -50.6251            -30.7537
    400.00            -51.6776            -32.1022
    410.00            -52.7056            -33.3917
    420.00            -53.7101            -34.6261
    430.00            -54.6923            -35.8089
    440.00            -55.6531            -36.9431
    450.00            -56.5934            -38.0318
    460.00            -57.5141            -39.0776
    470.00            -58.4160            -40.0830
    480.00            -59.2999            -41.0503
    490.00            -60.1665            -41.9816
