 DDSCAT --- DDSCAT 7.2.2 [12.06.05]   
 TARGET --- Cyl.prism, NAT=   1320 NFAC=  52 NLAY=  20 asp.ratio= 2.4580      
 PBCGS2 --- method of solution 
 GKDLDR --- prescription for polarizabilies
 CYLNDRCAP --- shape 
    1320     = NAT0 = number of dipoles
  0.14695066 = d/aeff for this target [d=dipole spacing]
    0.004940 = d (physical units)
  AEFF=      0.033616 = effective radius (physical units)
  WAVE=      0.514286 = wavelength (in vacuo, physical units)
K*AEFF=      0.410697 = 2*pi*aeff/lambda
NAMBIENT=    1.000000 = refractive index of ambient medium
n= ( 0.6380 ,  2.0810),  eps.= ( -3.9236 ,  2.6554)  |m|kd=  0.1314 for subs. 1
   TOL= 1.000E-05 = error tolerance for CCG method
( 1.00000  0.00000  0.00000) = target axis A1 in Target Frame
( 0.00000  1.00000  0.00000) = target axis A2 in Target Frame
  NAVG=   248 = (theta,phi) values used in comp. of Qsca,g
( 0.06035  0.00000  0.00000) = k vector (latt. units) in Lab Frame
( 0.00000, 0.00000)( 1.00000, 0.00000)( 0.00000, 0.00000)=inc.pol.vec. 1 in LF
( 0.00000, 0.00000)(-0.00000, 0.00000)( 1.00000,-0.00000)=inc.pol.vec. 2 in LF
   0.000   0.000 = beta_min, beta_max ;  NBETA = 1
   0.000   0.000 = theta_min, theta_max; NTHETA= 1
   0.000   0.000 = phi_min, phi_max   ;   NPHI = 1

 0.5000 = ETASCA = param. controlling # of scatt. dirs used to calculate <cos> etc.
 Results averaged over    1 target orientations
                   and    2 incident polarizations
          Qext       Qabs       Qsca      g(1)=<cos>  <cos^2>     Qbk       Qpha
 JO=1:  8.9391E-01 8.0837E-01 8.5553E-02  1.7353E-01 3.8781E-01 5.0774E-03  9.0425E-01
 JO=2:  8.9391E-01 8.0837E-01 8.5555E-02  1.7353E-01 3.8781E-01 5.0774E-03  9.0425E-01
 mean:  8.9391E-01 8.0837E-01 8.5554E-02  1.7353E-01 3.8781E-01 5.0774E-03  9.0425E-01
 Qpol= -5.3644E-07                                                  dQpha=  1.3709E-06
         Qsca*g(1)   Qsca*g(2)   Qsca*g(3)   iter  mxiter  Nsca
 JO=1:  1.4846E-02 -5.9563E-10  4.3383E-09     17   1200    248
 JO=2:  1.4846E-02  3.2585E-09  6.5729E-10     16   1200    248
 mean:  1.4846E-02  1.3314E-09  2.4978E-09
            Mueller matrix elements for selected scattering directions in Lab Frame   
 theta    phi    Pol.    S_11        S_12        S_21       S_22       S_31       S_41
  0.00   0.00  0.00000  7.2366E-03  8.3819E-09  8.382E-09  7.237E-03 -1.482E-10  2.746E-12
  5.00   0.00  0.00399  7.2075E-03 -2.8776E-05 -2.878E-05  7.207E-03 -1.282E-10 -4.715E-11
 10.00   0.00  0.01603  7.1205E-03 -1.1412E-04 -1.141E-04  7.121E-03 -1.282E-10  1.886E-11
 15.00   0.00  0.03629  6.9780E-03 -2.5322E-04 -2.532E-04  6.978E-03 -9.760E-11 -1.235E-10
 20.00   0.00  0.06506  6.7833E-03 -4.4132E-04 -4.413E-04  6.783E-03 -8.616E-11 -1.510E-10
 25.00   0.00  0.10271  6.5412E-03 -6.7185E-04 -6.718E-04  6.541E-03 -1.715E-10  1.088E-10
 30.00   0.00  0.14964  6.2582E-03 -9.3647E-04 -9.365E-04  6.258E-03 -1.166E-10  1.736E-12
 35.00   0.00  0.20621  5.9419E-03 -1.2253E-03 -1.225E-03  5.942E-03  7.150E-12 -2.850E-10
 40.00   0.00  0.27263  5.6010E-03 -1.5270E-03 -1.527E-03  5.601E-03  3.774E-11 -2.806E-10
 45.00   0.00  0.34878  5.2452E-03 -1.8294E-03 -1.829E-03  5.245E-03 -7.471E-11 -1.578E-10
 50.00   0.00  0.43399  4.8849E-03 -2.1200E-03 -2.120E-03  4.885E-03 -1.556E-10  8.873E-11
 55.00   0.00  0.52671  4.5305E-03 -2.3863E-03 -2.386E-03  4.530E-03 -7.266E-11 -1.021E-10
 60.00   0.00  0.62422  4.1919E-03 -2.6167E-03 -2.617E-03  4.192E-03  1.329E-10 -5.060E-10
 65.00   0.00  0.72230  3.8781E-03 -2.8012E-03 -2.801E-03  3.878E-03 -6.668E-11 -6.690E-11
 70.00   0.00  0.81521  3.5966E-03 -2.9320E-03 -2.932E-03  3.597E-03  1.394E-10 -3.844E-10
 75.00   0.00  0.89597  3.3528E-03 -3.0040E-03 -3.004E-03  3.353E-03 -7.155E-12 -9.022E-11
 80.00   0.00  0.95725  3.1498E-03 -3.0151E-03 -3.015E-03  3.150E-03 -1.350E-10  3.886E-11
 85.00   0.00  0.99265  2.9885E-03 -2.9666E-03 -2.967E-03  2.989E-03  1.322E-10 -4.495E-10
 90.00   0.00  0.99824  2.8673E-03 -2.8623E-03 -2.862E-03  2.867E-03  1.935E-10 -4.936E-10
 95.00   0.00  0.97352  2.7828E-03 -2.7091E-03 -2.709E-03  2.783E-03 -6.574E-11 -2.219E-11
100.00   0.00  0.92157  2.7296E-03 -2.5156E-03 -2.516E-03  2.730E-03 -1.269E-11 -3.274E-10
105.00   0.00  0.84821  2.7019E-03 -2.2918E-03 -2.292E-03  2.702E-03 -2.045E-11  8.214E-11
110.00   0.00  0.76057  2.6930E-03 -2.0482E-03 -2.048E-03  2.693E-03  5.101E-11 -3.650E-10
115.00   0.00  0.66572  2.6966E-03 -1.7952E-03 -1.795E-03  2.697E-03  5.896E-11 -1.734E-10
120.00   0.00  0.56967  2.7071E-03 -1.5421E-03 -1.542E-03  2.707E-03 -1.736E-11 -8.858E-11
125.00   0.00  0.47696  2.7196E-03 -1.2971E-03 -1.297E-03  2.720E-03 -1.566E-11 -4.311E-11
130.00   0.00  0.39065  2.7308E-03 -1.0668E-03 -1.067E-03  2.731E-03 -3.637E-11  6.215E-11
135.00   0.00  0.31252  2.7384E-03 -8.5580E-04 -8.558E-04  2.738E-03 -3.224E-11 -2.341E-11
140.00   0.00  0.24346  2.7413E-03 -6.6738E-04 -6.674E-04  2.741E-03 -2.593E-11  5.971E-11
145.00   0.00  0.18368  2.7394E-03 -5.0318E-04 -5.032E-04  2.739E-03  3.516E-11  1.175E-10
150.00   0.00  0.13304  2.7336E-03 -3.6369E-04 -3.637E-04  2.734E-03  4.114E-12  1.608E-11
155.00   0.00  0.09120  2.7250E-03 -2.4851E-04 -2.485E-04  2.725E-03  6.677E-11 -1.923E-11
160.00   0.00  0.05771  2.7151E-03 -1.5669E-04 -1.567E-04  2.715E-03  4.045E-11 -6.309E-11
165.00   0.00  0.03217  2.7055E-03 -8.7026E-05 -8.703E-05  2.706E-03  4.632E-11  1.269E-11
170.00   0.00  0.01420  2.6976E-03 -3.8309E-05 -3.831E-05  2.698E-03  1.541E-11  1.087E-10
175.00   0.00  0.00354  2.6923E-03 -9.5175E-06 -9.518E-06  2.692E-03  3.731E-11  1.134E-11
180.00   0.00  0.00000  2.6905E-03 -1.1642E-10 -1.164E-10  2.690E-03  3.708E-11  2.648E-11
