 DDSCAT --- DDSCAT 7.2.2 [12.06.05]   
 TARGET --- Cyl.prism, NAT=   1320 NFAC=  52 NLAY=  20 asp.ratio= 2.4580      
 PBCGS2 --- method of solution 
 GKDLDR --- prescription for polarizabilies
 CYLNDRCAP --- shape 
    1320     = NAT0 = number of dipoles
  0.14695066 = d/aeff for this target [d=dipole spacing]
    0.004940 = d (physical units)
  AEFF=      0.033616 = effective radius (physical units)
  WAVE=      0.557143 = wavelength (in vacuo, physical units)
K*AEFF=      0.379105 = 2*pi*aeff/lambda
NAMBIENT=    1.000000 = refractive index of ambient medium
n= ( 0.3246 ,  2.8103),  eps.= ( -7.7927 ,  1.8245)  |m|kd=  0.1576 for subs. 1
   TOL= 1.000E-05 = error tolerance for CCG method
( 1.00000  0.00000  0.00000) = target axis A1 in Target Frame
( 0.00000  1.00000  0.00000) = target axis A2 in Target Frame
  NAVG=   248 = (theta,phi) values used in comp. of Qsca,g
( 0.05571  0.00000  0.00000) = k vector (latt. units) in Lab Frame
( 0.00000, 0.00000)( 1.00000, 0.00000)( 0.00000, 0.00000)=inc.pol.vec. 1 in LF
( 0.00000, 0.00000)(-0.00000, 0.00000)( 1.00000,-0.00000)=inc.pol.vec. 2 in LF
   0.000   0.000 = beta_min, beta_max ;  NBETA = 1
   0.000   0.000 = theta_min, theta_max; NTHETA= 1
   0.000   0.000 = phi_min, phi_max   ;   NPHI = 1

 0.5000 = ETASCA = param. controlling # of scatt. dirs used to calculate <cos> etc.
 Results averaged over    1 target orientations
                   and    2 incident polarizations
          Qext       Qabs       Qsca      g(1)=<cos>  <cos^2>     Qbk       Qpha
 JO=1:  3.0179E-01 2.4893E-01 5.2863E-02  1.3360E-01 3.8772E-01 3.6788E-03  8.1702E-01
 JO=2:  3.0179E-01 2.4893E-01 5.2863E-02  1.3360E-01 3.8772E-01 3.6788E-03  8.1702E-01
 mean:  3.0179E-01 2.4893E-01 5.2863E-02  1.3360E-01 3.8772E-01 3.6788E-03  8.1702E-01
 Qpol= -3.2783E-07                                                  dQpha= -2.9802E-07
         Qsca*g(1)   Qsca*g(2)   Qsca*g(3)   iter  mxiter  Nsca
 JO=1:  7.0623E-03  2.7476E-10 -3.4277E-09     55   1200    248
 JO=2:  7.0623E-03  6.9063E-10 -1.0572E-09     54   1200    248
 mean:  7.0623E-03  4.8269E-10 -2.2425E-09
            Mueller matrix elements for selected scattering directions in Lab Frame   
 theta    phi    Pol.    S_11        S_12        S_21       S_22       S_31       S_41
  0.00   0.00  0.00000  3.5646E-03 -1.5134E-09 -1.513E-09  3.565E-03 -1.221E-11  6.452E-11
  5.00   0.00  0.00407  3.5504E-03 -1.4460E-05 -1.446E-05  3.550E-03  2.222E-11  1.003E-10
 10.00   0.00  0.01636  3.5081E-03 -5.7394E-05 -5.739E-05  3.508E-03  3.919E-11 -8.518E-12
 15.00   0.00  0.03704  3.4388E-03 -1.2739E-04 -1.274E-04  3.439E-03  1.374E-11  1.969E-10
 20.00   0.00  0.06641  3.3444E-03 -2.2211E-04 -2.221E-04  3.344E-03 -2.611E-11  3.785E-11
 25.00   0.00  0.10484  3.2271E-03 -3.3835E-04 -3.383E-04  3.227E-03  4.143E-11  1.119E-10
 30.00   0.00  0.15273  3.0903E-03 -4.7200E-04 -4.720E-04  3.090E-03 -4.461E-13  1.107E-10
 35.00   0.00  0.21044  2.9378E-03 -6.1823E-04 -6.182E-04  2.938E-03  6.298E-13  9.355E-11
 40.00   0.00  0.27814  2.7739E-03 -7.7153E-04 -7.715E-04  2.774E-03  5.388E-11  1.679E-11
 45.00   0.00  0.35567  2.6035E-03 -9.2598E-04 -9.260E-04  2.603E-03  9.871E-11 -3.380E-10
 50.00   0.00  0.44225  2.4316E-03 -1.0754E-03 -1.075E-03  2.432E-03  4.743E-11  1.112E-10
 55.00   0.00  0.53620  2.2633E-03 -1.2136E-03 -1.214E-03  2.263E-03  6.404E-11  4.124E-11
 60.00   0.00  0.63458  2.1036E-03 -1.3349E-03 -1.335E-03  2.104E-03  1.080E-10 -3.767E-10
 65.00   0.00  0.73293  1.9569E-03 -1.4342E-03 -1.434E-03  1.957E-03  6.934E-11  2.070E-11
 70.00   0.00  0.82527  1.8268E-03 -1.5076E-03 -1.508E-03  1.827E-03 -3.723E-11  5.192E-10
 75.00   0.00  0.90445  1.7161E-03 -1.5521E-03 -1.552E-03  1.716E-03  8.647E-11 -1.579E-10
 80.00   0.00  0.96312  1.6264E-03 -1.5664E-03 -1.566E-03  1.626E-03 -4.903E-12  3.616E-10
 85.00   0.00  0.99512  1.5582E-03 -1.5506E-03 -1.551E-03  1.558E-03  6.984E-11 -4.532E-13
 90.00   0.00  0.99693  1.5109E-03 -1.5062E-03 -1.506E-03  1.511E-03  1.299E-11  2.643E-10
 95.00   0.00  0.96860  1.4827E-03 -1.4362E-03 -1.436E-03  1.483E-03  4.228E-11  1.610E-10
100.00   0.00  0.91369  1.4713E-03 -1.3443E-03 -1.344E-03  1.471E-03  4.542E-11 -2.594E-11
105.00   0.00  0.83831  1.4735E-03 -1.2352E-03 -1.235E-03  1.473E-03  7.906E-11  5.097E-11
110.00   0.00  0.74966  1.4860E-03 -1.1140E-03 -1.114E-03  1.486E-03  3.445E-11  3.767E-10
115.00   0.00  0.65470  1.5055E-03 -9.8566E-04 -9.857E-04  1.506E-03 -2.666E-11  3.974E-10
120.00   0.00  0.55924  1.5289E-03 -8.5505E-04 -8.550E-04  1.529E-03  8.876E-11 -2.563E-11
125.00   0.00  0.46758  1.5536E-03 -7.2644E-04 -7.264E-04  1.554E-03  3.580E-11 -4.331E-11
130.00   0.00  0.38256  1.5774E-03 -6.0347E-04 -6.035E-04  1.577E-03  5.660E-11  4.283E-11
135.00   0.00  0.30582  1.5989E-03 -4.8897E-04 -4.890E-04  1.599E-03  2.109E-11  5.266E-11
140.00   0.00  0.23810  1.6170E-03 -3.8502E-04 -3.850E-04  1.617E-03 -4.567E-11  5.705E-11
145.00   0.00  0.17957  1.6315E-03 -2.9297E-04 -2.930E-04  1.632E-03  2.113E-11  1.978E-11
150.00   0.00  0.13003  1.6425E-03 -2.1357E-04 -2.136E-04  1.642E-03  5.460E-11 -7.424E-11
155.00   0.00  0.08911  1.6502E-03 -1.4705E-04 -1.471E-04  1.650E-03  1.599E-11 -1.675E-11
160.00   0.00  0.05638  1.6553E-03 -9.3331E-05 -9.333E-05  1.655E-03 -4.914E-12 -5.919E-11
165.00   0.00  0.03143  1.6583E-03 -5.2114E-05 -5.211E-05  1.658E-03  1.550E-11  1.761E-11
170.00   0.00  0.01387  1.6600E-03 -2.3031E-05 -2.303E-05  1.660E-03 -3.073E-11  4.909E-11
175.00   0.00  0.00345  1.6608E-03 -5.7365E-06 -5.736E-06  1.661E-03  3.711E-11 -2.476E-11
180.00   0.00  0.00000  1.6610E-03  5.8208E-10  5.821E-10  1.661E-03  5.806E-12 -2.355E-11
