# Analysis Created by 'NetAna'.
# AC Node Analysis of file:  /home/jim/new_netana/netana/examples/BainterFilter.txt
# Report file created:  /home/jim/new_netana/netana/examples/BainterFilter.report 
# Date Created: Thu Oct 18 08:19:51 2012
#


##### Units = Volts ####

# Frequency(HZ)       Magnitude(db)    Phase Angle(deg)
    700.00             -13.1138          -77.1383
    705.00             -13.2871          -77.3934
    710.00             -13.4627          -77.6465
    715.00             -13.6408          -77.8976
    720.00             -13.8214          -78.1469
    725.00             -14.0046          -78.3942
    730.00             -14.1906          -78.6397
    735.00             -14.3795          -78.8833
    740.00             -14.5713          -79.1251
    745.00             -14.7662          -79.3651
    750.00             -14.9643          -79.6032
    755.00             -15.1658          -79.8396
    760.00             -15.3708          -80.0743
    765.00             -15.5793          -80.3072
    770.00             -15.7917          -80.5383
    775.00             -16.0081          -80.7678
    780.00             -16.2286          -80.9956
    785.00             -16.4535          -81.2217
    790.00             -16.6829          -81.4461
    795.00             -16.9171          -81.6689
    800.00             -17.1564          -81.8900
    805.00             -17.4009          -82.1094
    810.00             -17.6510          -82.3272
    815.00             -17.9070          -82.5434
    820.00             -18.1692          -82.7580
    825.00             -18.4379          -82.9709
    830.00             -18.7136          -83.1822
    835.00             -18.9966          -83.3918
    840.00             -19.2875          -83.5998
    845.00             -19.5866          -83.8061
    850.00             -19.8947          -84.0107
    855.00             -20.2122          -84.2136
    860.00             -20.5398          -84.4148
    865.00             -20.8784          -84.6142
    870.00             -21.2286          -84.8118
    875.00             -21.5915          -85.0075
    880.00             -21.9680          -85.2012
    885.00             -22.3594          -85.3929
    890.00             -22.7669          -85.5825
    895.00             -23.1921          -85.7699
    900.00             -23.6367          -85.9549
    905.00             -24.1026          -86.1372
    910.00             -24.5923          -86.3168
    915.00             -25.1083          -86.4933
    920.00             -25.6538          -86.6664
    925.00             -26.2327          -86.8355
    930.00             -26.8495          -87.0002
    935.00             -27.5099          -87.1596
    940.00             -28.2207          -87.3128
    945.00             -28.9906          -87.4582
    950.00             -29.8308          -87.5941
    955.00             -30.7560          -87.7175
    960.00             -31.7859          -87.8242
    965.00             -32.9480          -87.9076
    970.00             -34.2825          -87.9569
    975.00             -35.8511          -87.9527
    980.00             -37.7556          -87.8568
    985.00             -40.1837          -87.5823
    990.00             -43.5436          -86.8795
    995.00             -49.0459          -84.6207
   1000.00             -65.7742          -51.6190
   1005.00             -51.3350          +83.0701
   1010.00             -44.7577          +86.4899
   1015.00             -41.0661          +87.4105
   1020.00             -38.4935          +87.7659
   1025.00             -36.5196          +87.9043
   1030.00             -34.9194          +87.9371
   1035.00             -33.5746          +87.9107
   1040.00             -32.4156          +87.8480
   1045.00             -31.3979          +87.7615
   1050.00             -30.4911          +87.6586
   1055.00             -29.6739          +87.5442
   1060.00             -28.9304          +87.4214
   1065.00             -28.2487          +87.2922
   1070.00             -27.6194          +87.1582
   1075.00             -27.0354          +87.0205
   1080.00             -26.4907          +86.8800
   1085.00             -25.9805          +86.7373
   1090.00             -25.5007          +86.5929
   1095.00             -25.0482          +86.4471
   1100.00             -24.6200          +86.3003
   1105.00             -24.2137          +86.1527
   1110.00             -23.8273          +86.0045
   1115.00             -23.4591          +85.8559
   1120.00             -23.1074          +85.7070
   1125.00             -22.7709          +85.5580
   1130.00             -22.4484          +85.4088
   1135.00             -22.1388          +85.2597
   1140.00             -21.8412          +85.1106
   1145.00             -21.5548          +84.9617
   1150.00             -21.2787          +84.8129
   1155.00             -21.0122          +84.6643
   1160.00             -20.7548          +84.5160
   1165.00             -20.5060          +84.3679
   1170.00             -20.2651          +84.2202
   1175.00             -20.0317          +84.0727
   1180.00             -19.8054          +83.9257
   1185.00             -19.5858          +83.7790
   1190.00             -19.3725          +83.6326
   1195.00             -19.1653          +83.4867
   1200.00             -18.9637          +83.3412
   1205.00             -18.7675          +83.1960
   1210.00             -18.5765          +83.0513
   1215.00             -18.3904          +82.9070
   1220.00             -18.2089          +82.7632
   1225.00             -18.0319          +82.6198
   1230.00             -17.8592          +82.4768
   1235.00             -17.6906          +82.3343
   1240.00             -17.5258          +82.1922
   1245.00             -17.3648          +82.0506
   1250.00             -17.2074          +81.9094
   1255.00             -17.0534          +81.7687
   1260.00             -16.9027          +81.6284
   1265.00             -16.7552          +81.4886
   1270.00             -16.6108          +81.3492
   1275.00             -16.4692          +81.2103
   1280.00             -16.3306          +81.0719
   1285.00             -16.1946          +80.9339
   1290.00             -16.0613          +80.7963
   1295.00             -15.9306          +80.6592
