 DDSCAT --- DDSCAT 7.2.2 [12.06.05]   
 TARGET --- Cyl.prism, NAT=   1320 NFAC=  52 NLAY=  20 asp.ratio= 2.4580      
 PBCGS2 --- method of solution 
 GKDLDR --- prescription for polarizabilies
 CYLNDRCAP --- shape 
    1320     = NAT0 = number of dipoles
  0.14695066 = d/aeff for this target [d=dipole spacing]
    0.004940 = d (physical units)
  AEFF=      0.033616 = effective radius (physical units)
  WAVE=      0.600000 = wavelength (in vacuo, physical units)
K*AEFF=      0.352026 = 2*pi*aeff/lambda
NAMBIENT=    1.000000 = refractive index of ambient medium
n= ( 0.2198 ,  2.9892),  eps.= ( -8.8870 ,  1.3139)  |m|kd=  0.1550 for subs. 1
   TOL= 1.000E-05 = error tolerance for CCG method
( 1.00000  0.00000  0.00000) = target axis A1 in Target Frame
( 0.00000  1.00000  0.00000) = target axis A2 in Target Frame
  NAVG=   248 = (theta,phi) values used in comp. of Qsca,g
( 0.05173  0.00000  0.00000) = k vector (latt. units) in Lab Frame
( 0.00000, 0.00000)( 1.00000, 0.00000)( 0.00000, 0.00000)=inc.pol.vec. 1 in LF
( 0.00000, 0.00000)(-0.00000, 0.00000)( 1.00000,-0.00000)=inc.pol.vec. 2 in LF
   0.000   0.000 = beta_min, beta_max ;  NBETA = 1
   0.000   0.000 = theta_min, theta_max; NTHETA= 1
   0.000   0.000 = phi_min, phi_max   ;   NPHI = 1

 0.5000 = ETASCA = param. controlling # of scatt. dirs used to calculate <cos> etc.
 Results averaged over    1 target orientations
                   and    2 incident polarizations
          Qext       Qabs       Qsca      g(1)=<cos>  <cos^2>     Qbk       Qpha
 JO=1:  2.2814E-01 1.8947E-01 3.8675E-02  1.1172E-01 3.8902E-01 2.9549E-03  7.4328E-01
 JO=2:  2.2815E-01 1.8947E-01 3.8675E-02  1.1172E-01 3.8902E-01 2.9549E-03  7.4328E-01
 mean:  2.2814E-01 1.8947E-01 3.8675E-02  1.1172E-01 3.8902E-01 2.9549E-03  7.4328E-01
 Qpol= -3.2783E-06                                                  dQpha= -4.1723E-07
         Qsca*g(1)   Qsca*g(2)   Qsca*g(3)   iter  mxiter  Nsca
 JO=1:  4.3206E-03  8.9630E-10  2.1319E-09     96   1200    248
 JO=2:  4.3206E-03  2.3042E-09  5.1982E-11     92   1200    248
 mean:  4.3206E-03  1.6002E-09  1.0919E-09
            Mueller matrix elements for selected scattering directions in Lab Frame   
 theta    phi    Pol.    S_11        S_12        S_21       S_22       S_31       S_41
  0.00   0.00  0.00000  2.1710E-03 -1.9791E-09 -1.979E-09  2.171E-03 -2.719E-11  4.974E-11
  5.00   0.00  0.00406  2.1624E-03 -8.7895E-06 -8.789E-06  2.162E-03 -7.207E-12  1.183E-11
 10.00   0.00  0.01632  2.1368E-03 -3.4865E-05 -3.486E-05  2.137E-03 -3.427E-11  2.373E-11
 15.00   0.00  0.03695  2.0949E-03 -7.7395E-05 -7.739E-05  2.095E-03 -2.287E-11  7.636E-11
 20.00   0.00  0.06624  2.0377E-03 -1.3498E-04 -1.350E-04  2.038E-03 -5.258E-12 -6.645E-11
 25.00   0.00  0.10457  1.9669E-03 -2.0569E-04 -2.057E-04  1.967E-03  4.298E-12 -1.124E-10
 30.00   0.00  0.15235  1.8843E-03 -2.8709E-04 -2.871E-04  1.884E-03 -1.701E-11  3.064E-11
 35.00   0.00  0.20994  1.7924E-03 -3.7629E-04 -3.763E-04  1.792E-03 -3.572E-11 -5.603E-11
 40.00   0.00  0.27751  1.6937E-03 -4.7003E-04 -4.700E-04  1.694E-03 -2.748E-11  9.051E-11
 45.00   0.00  0.35491  1.5913E-03 -5.6478E-04 -5.648E-04  1.591E-03  6.889E-12 -1.766E-10
 50.00   0.00  0.44138  1.4882E-03 -6.5686E-04 -6.569E-04  1.488E-03 -3.551E-12 -2.020E-10
 55.00   0.00  0.53525  1.3874E-03 -7.4263E-04 -7.426E-04  1.387E-03 -2.524E-11  1.022E-10
 60.00   0.00  0.63360  1.2921E-03 -8.1866E-04 -8.187E-04  1.292E-03 -3.245E-11 -2.858E-11
 65.00   0.00  0.73199  1.2048E-03 -8.8188E-04 -8.819E-04  1.205E-03 -1.506E-11 -1.300E-10
 70.00   0.00  0.82445  1.1278E-03 -9.2980E-04 -9.298E-04  1.128E-03 -1.376E-11 -2.114E-10
 75.00   0.00  0.90382  1.0629E-03 -9.6063E-04 -9.606E-04  1.063E-03 -3.670E-11 -1.159E-10
 80.00   0.00  0.96273  1.0110E-03 -9.7336E-04 -9.734E-04  1.011E-03 -7.121E-11  1.608E-10
 85.00   0.00  0.99501  9.7274E-04 -9.6788E-04 -9.679E-04  9.727E-04 -5.906E-11  9.397E-11
 90.00   0.00  0.99709  9.4765E-04 -9.4489E-04 -9.449E-04  9.476E-04 -3.471E-11 -6.474E-11
 95.00   0.00  0.96898  9.3487E-04 -9.0587E-04 -9.059E-04  9.349E-04 -5.087E-11 -5.082E-11
100.00   0.00  0.91422  9.3298E-04 -8.5295E-04 -8.529E-04  9.330E-04 -3.173E-11  1.523E-11
105.00   0.00  0.83892  9.4018E-04 -7.8873E-04 -7.887E-04  9.402E-04 -7.280E-11 -9.493E-12
110.00   0.00  0.75029  9.5444E-04 -7.1611E-04 -7.161E-04  9.544E-04  5.185E-12 -1.306E-10
115.00   0.00  0.65531  9.7371E-04 -6.3809E-04 -6.381E-04  9.737E-04 -9.019E-12 -1.743E-10
120.00   0.00  0.55980  9.9600E-04 -5.5756E-04 -5.576E-04  9.960E-04 -3.511E-11  1.553E-11
125.00   0.00  0.46808  1.0195E-03 -4.7722E-04 -4.772E-04  1.020E-03 -1.509E-12 -1.184E-10
130.00   0.00  0.38298  1.0428E-03 -3.9938E-04 -3.994E-04  1.043E-03 -2.274E-11  7.068E-14
135.00   0.00  0.30617  1.0647E-03 -3.2598E-04 -3.260E-04  1.065E-03 -1.229E-11 -1.105E-11
140.00   0.00  0.23838  1.0845E-03 -2.5851E-04 -2.585E-04  1.084E-03 -2.518E-11 -8.799E-11
145.00   0.00  0.17979  1.1015E-03 -1.9805E-04 -1.980E-04  1.102E-03 -3.956E-11 -3.952E-12
150.00   0.00  0.13019  1.1158E-03 -1.4527E-04 -1.453E-04  1.116E-03 -1.239E-11  6.291E-12
155.00   0.00  0.08923  1.1273E-03 -1.0059E-04 -1.006E-04  1.127E-03  1.063E-11  8.870E-12
160.00   0.00  0.05646  1.1361E-03 -6.4147E-05 -6.415E-05  1.136E-03 -2.342E-11  1.543E-11
165.00   0.00  0.03147  1.1426E-03 -3.5957E-05 -3.596E-05  1.143E-03  1.302E-11 -3.867E-13
170.00   0.00  0.01389  1.1470E-03 -1.5935E-05 -1.594E-05  1.147E-03 -1.344E-11 -1.287E-11
175.00   0.00  0.00346  1.1495E-03 -3.9769E-06 -3.977E-06  1.150E-03  6.946E-12 -2.251E-11
180.00   0.00  0.00000  1.1504E-03 -3.4925E-10 -3.492E-10  1.150E-03 -8.472E-13 -4.645E-11
